Description:
	Nichia Light Emitting Diode (LED): NSPL500DS
	http://www.nichia.co.jp/en/product/led_product_data.html?type=%27NSPL500DS%27
	Warm-White Illuminant
	Relative spectral power distributions [S(lambda)] for wavelengths lambda = 300 nm to 830Â nm at 1 nm intervals
End
Spectrum:
	300	0.0000
	301	0.0000
	302	0.0000
	303	0.0000
	304	0.0000
	305	0.0000
	306	0.0000
	307	0.0000
	308	0.0000
	309	0.0000
	310	0.0000
	311	0.0000
	312	0.0000
	313	0.0000
	314	0.0000
	315	0.0000
	316	0.0000
	317	0.0000
	318	0.0000
	319	0.0000
	320	0.0000
	321	0.0000
	322	0.0000
	323	0.0000
	324	0.0000
	325	0.0000
	326	0.0000
	327	0.0000
	328	0.0000
	329	0.0000
	330	0.0000
	331	0.0000
	332	0.0000
	333	0.0000
	334	0.0000
	335	0.0000
	336	0.0000
	337	0.0000
	338	0.0000
	339	0.0000
	340	0.0000
	341	0.0000
	342	0.0000
	343	0.0000
	344	0.0000
	345	0.0000
	346	0.0000
	347	0.0000
	348	0.0000
	349	0.0000
	350	0.0000
	351	0.0000
	352	0.0000
	353	0.0000
	354	0.0000
	355	0.0000
	356	0.0000
	357	0.0000
	358	0.0000
	359	0.0000
	360	0.0000
	361	0.0000
	362	0.0000
	363	0.0000
	364	0.0000
	365	0.0000
	366	0.0000
	367	0.0000
	368	0.0000
	369	0.0000
	370	0.0000
	371	0.0000
	372	0.0000
	373	0.0000
	374	0.0000
	375	0.0000
	376	0.0000
	377	0.0000
	378	0.0000
	379	0.0000
	380	0.1000
	381	0.1000
	382	0.3000
	383	0.4000
	384	0.0000
	385	0.1000
	386	0.0000
	387	0.2000
	388	0.3000
	389	0.2000
	390	0.3000
	391	0.2000
	392	0.3000
	393	0.2000
	394	0.3000
	395	0.2000
	396	0.4000
	397	0.2000
	398	0.2000
	399	0.4000
	400	0.3000
	401	0.3000
	402	0.5000
	403	0.3000
	404	0.3000
	405	0.3000
	406	0.3000
	407	0.3000
	408	0.4000
	409	0.3000
	410	0.3000
	411	0.4000
	412	0.3000
	413	0.4000
	414	0.5000
	415	0.4000
	416	0.5000
	417	0.5000
	418	0.6000
	419	0.6000
	420	0.5000
	421	0.7000
	422	0.7000
	423	0.8000
	424	0.8000
	425	0.8000
	426	0.9000
	427	1.2000
	428	1.3000
	429	1.3000
	430	1.6000
	431	1.6000
	432	1.9000
	433	2.2000
	434	2.4000
	435	2.6000
	436	3.1000
	437	3.5000
	438	3.9000
	439	4.8000
	440	5.2000
	441	5.9000
	442	6.8000
	443	7.8000
	444	8.8000
	445	10.0000
	446	11.4000
	447	13.4000
	448	15.4000
	449	17.6000
	450	20.5000
	451	24.0000
	452	27.9000
	453	32.2000
	454	36.9000
	455	42.3000
	456	48.2000
	457	55.1000
	458	61.0000
	459	66.8000
	460	73.3000
	461	78.5000
	462	82.6000
	463	85.3000
	464	87.3000
	465	88.3000
	466	88.0000
	467	86.3000
	468	83.4000
	469	81.1000
	470	78.1000
	471	75.6000
	472	72.9000
	473	70.3000
	474	68.4000
	475	66.4000
	476	65.2000
	477	63.4000
	478	62.3000
	479	60.0000
	480	58.7000
	481	56.3000
	482	55.1000
	483	52.9000
	484	51.0000
	485	48.7000
	486	47.3000
	487	45.4000
	488	43.6000
	489	42.4000
	490	41.3000
	491	40.1000
	492	39.3000
	493	39.1000
	494	38.3000
	495	38.0000
	496	37.2000
	497	37.4000
	498	37.4000
	499	37.3000
	500	37.6000
	501	37.6000
	502	37.5000
	503	37.4000
	504	37.7000
	505	38.1000
	506	38.6000
	507	39.2000
	508	39.3000
	509	39.8000
	510	40.3000
	511	41.2000
	512	41.7000
	513	42.6000
	514	43.6000
	515	44.2000
	516	44.5000
	517	45.6000
	518	46.1000
	519	46.7000
	520	47.6000
	521	48.3000
	522	49.2000
	523	49.2000
	524	50.5000
	525	51.4000
	526	52.1000
	527	53.1000
	528	53.9000
	529	54.7000
	530	55.8000
	531	56.5000
	532	56.7000
	533	57.7000
	534	59.0000
	535	59.0000
	536	60.4000
	537	61.3000
	538	62.2000
	539	63.3000
	540	64.2000
	541	64.8000
	542	65.9000
	543	67.0000
	544	67.9000
	545	69.0000
	546	69.9000
	547	70.6000
	548	71.8000
	549	72.9000
	550	73.7000
	551	74.7000
	552	76.0000
	553	77.5000
	554	78.2000
	555	78.2000
	556	80.0000
	557	80.3000
	558	81.5000
	559	82.5000
	560	83.8000
	561	85.3000
	562	85.3000
	563	86.3000
	564	87.2000
	565	88.1000
	566	89.2000
	567	89.9000
	568	90.4000
	569	91.3000
	570	92.1000
	571	92.4000
	572	93.5000
	573	94.0000
	574	95.1000
	575	94.9000
	576	95.2000
	577	96.6000
	578	97.5000
	579	97.5000
	580	98.0000
	581	98.8000
	582	98.7000
	583	99.0000
	584	99.1000
	585	99.5000
	586	99.5000
	587	99.9000
	588	99.7000
	589	99.5000
	590	99.7000
	591	99.5000
	592	99.7000
	593	99.7000
	594	99.2000
	595	99.8000
	596	99.2000
	597	99.0000
	598	98.1000
	599	97.7000
	600	97.9000
	601	97.1000
	602	96.3000
	603	95.9000
	604	95.3000
	605	95.1000
	606	94.4000
	607	93.3000
	608	92.3000
	609	92.4000
	610	91.0000
	611	90.6000
	612	89.6000
	613	89.6000
	614	88.4000
	615	87.6000
	616	86.3000
	617	85.4000
	618	84.4000
	619	84.1000
	620	82.5000
	621	81.6000
	622	80.6000
	623	79.8000
	624	78.8000
	625	78.3000
	626	77.0000
	627	76.0000
	628	74.8000
	629	74.0000
	630	72.8000
	631	72.2000
	632	70.8000
	633	69.6000
	634	69.3000
	635	67.8000
	636	66.5000
	637	66.2000
	638	65.2000
	639	63.8000
	640	63.1000
	641	61.8000
	642	61.0000
	643	59.7000
	644	58.9000
	645	58.0000
	646	56.4000
	647	55.9000
	648	55.3000
	649	53.9000
	650	53.1000
	651	52.0000
	652	51.5000
	653	50.7000
	654	49.3000
	655	48.6000
	656	47.4000
	657	46.9000
	658	46.0000
	659	45.5000
	660	44.5000
	661	43.2000
	662	42.7000
	663	42.0000
	664	41.0000
	665	39.9000
	666	39.6000
	667	38.3000
	668	37.6000
	669	37.1000
	670	36.5000
	671	35.9000
	672	35.2000
	673	34.2000
	674	33.7000
	675	33.1000
	676	32.2000
	677	32.0000
	678	31.0000
	679	30.6000
	680	29.8000
	681	29.4000
	682	29.1000
	683	28.4000
	684	27.6000
	685	26.7000
	686	26.3000
	687	26.1000
	688	25.2000
	689	24.8000
	690	24.4000
	691	23.7000
	692	23.4000
	693	23.1000
	694	22.4000
	695	21.6000
	696	21.0000
	697	20.5000
	698	20.1000
	699	20.4000
	700	19.5000
	701	19.0000
	702	18.5000
	703	18.3000
	704	17.7000
	705	17.9000
	706	17.2000
	707	16.8000
	708	16.4000
	709	16.1000
	710	15.6000
	711	15.1000
	712	14.9000
	713	14.6000
	714	14.3000
	715	13.8000
	716	13.8000
	717	13.4000
	718	13.0000
	719	12.8000
	720	12.5000
	721	12.1000
	722	12.0000
	723	11.6000
	724	11.3000
	725	10.9000
	726	10.9000
	727	10.5000
	728	10.2000
	729	10.1000
	730	9.9000
	731	9.9000
	732	9.5000
	733	9.1000
	734	9.0000
	735	9.0000
	736	8.4000
	737	8.3000
	738	8.4000
	739	8.1000
	740	7.7000
	741	7.8000
	742	7.6000
	743	7.4000
	744	7.1000
	745	7.0000
	746	7.0000
	747	6.7000
	748	6.6000
	749	6.4000
	750	6.2000
	751	6.1000
	752	6.0000
	753	5.8000
	754	5.6000
	755	5.6000
	756	5.4000
	757	5.3000
	758	5.1000
	759	5.1000
	760	5.0000
	761	4.8000
	762	4.7000
	763	4.5000
	764	4.5000
	765	4.3000
	766	4.1000
	767	4.2000
	768	4.0000
	769	4.1000
	770	3.9000
	771	3.8000
	772	3.8000
	773	3.5000
	774	3.6000
	775	3.5000
	776	3.5000
	777	3.3000
	778	3.2000
	779	3.1000
	780	3.0000
	781	3.1000
	782	3.2000
	783	2.7000
	784	2.8000
	785	2.8000
	786	2.6000
	787	2.6000
	788	2.7000
	789	2.4000
	790	2.4000
	791	2.4000
	792	2.4000
	793	2.3000
	794	2.1000
	795	2.2000
	796	2.2000
	797	2.0000
	798	2.0000
	799	1.9000
	800	2.1000
	801	2.0143
	802	1.9886
	803	1.9629
	804	1.9371
	805	1.9114
	806	1.8857
	807	1.8600
	808	1.8343
	809	1.8086
	810	1.7829
	811	1.7571
	812	1.7314
	813	1.7057
	814	1.6800
	815	1.6543
	816	1.6286
	817	1.6029
	818	1.5771
	819	1.5514
	820	1.5257
	821	1.5000
	822	1.4743
	823	1.4486
	824	1.4229
	825	1.3971
	826	1.3714
	827	1.3457
	828	1.3200
	829	1.2943
	830	1.2686
End
