Description:
	Relative Spectral Power Distribution (SPD) functions
	S0(λ) (blue), S1(λ) (green) and S2(λ) (red)
	of an CIE Standard Illuminant D
	https://www.waveformlighting.com/tech/how-to-calculate-the-daylight-spectrum-d-illuminant
	https://www.waveformlighting.com/files/daylight_spd_5.txt
End
Functions:
	300	0.0000	0.0000	0.0000
	301	1.0444	0.5653	0.1661
	302	1.4436	0.8847	0.2459
	303	2.1623	1.3638	0.5653
	304	2.6414	1.6832	0.8048
	305	3.1205	2.1623	0.9645
	306	3.5996	2.5615	1.1242
	307	4.3182	3.2003	1.3638
	308	4.8771	3.6794	1.6033
	309	5.3562	3.9988	1.7630
	310	6.7136	4.7973	1.9227
	311	9.5084	6.6338	2.1623
	312	11.4247	8.3106	2.4018
	313	13.3411	10.0673	2.5615
	314	15.4970	11.6643	2.7212
	315	18.5313	14.0597	3.0406
	316	20.7670	15.6567	3.2003
	317	22.8431	17.2537	3.3600
	318	24.9191	18.8506	3.5197
	319	28.1131	21.1663	3.7592
	320	30.2690	22.8431	4.0786
	321	32.4249	24.5998	4.4779
	322	34.8204	26.3564	4.7973
	323	38.1740	28.9116	5.4361
	324	40.4896	30.6683	5.8353
	325	42.8052	32.4249	6.2346
	326	45.0410	34.1816	6.6338
	327	48.5544	36.7368	7.1927
	328	50.7901	38.3337	7.6718
	329	53.0259	40.2501	7.9912
	330	54.4632	41.2881	8.3106
	331	55.4213	41.6874	8.3106
	332	55.6609	41.5277	8.2308
	333	55.8206	41.4478	8.1509
	334	56.0601	41.3680	8.1509
	335	56.2997	41.2083	7.9912
	336	56.4594	41.0486	7.9912
	337	56.6191	40.8889	7.9114
	338	56.7788	40.7292	7.8315
	339	57.0982	40.5695	7.7517
	340	57.3377	40.5695	7.6718
	341	57.7370	40.5695	7.5121
	342	58.1362	40.7292	7.5121
	343	58.7750	40.8889	7.3524
	344	59.0944	40.8889	7.1927
	345	59.4936	41.0486	7.1927
	346	59.8929	41.0486	7.0330
	347	60.5317	41.2083	6.8733
	348	60.9309	41.3680	6.7935
	349	61.3301	41.3680	6.7136
	350	61.4898	41.5277	6.6338
	351	61.6495	41.1284	6.3943
	352	61.6495	40.6493	6.2346
	353	61.5697	40.3299	6.1547
	354	61.5697	40.0105	6.0749
	355	61.5697	39.6912	5.9152
	356	61.4898	39.2121	5.7555
	357	61.4898	38.8927	5.5958
	358	61.4100	38.5733	5.4361
	359	61.4100	38.2539	5.2764
	360	61.7294	38.0143	5.2764
	361	62.2883	38.4934	5.2764
	362	62.9271	38.8128	5.3562
	363	63.5659	39.2919	5.4361
	364	64.5241	39.7710	5.5958
	365	65.2427	40.2501	5.5958
	366	65.8815	40.5695	5.7555
	367	66.5203	41.0486	5.7555
	368	67.4785	41.5277	5.9152
	369	68.1173	42.0068	5.9152
	370	68.5964	42.2463	5.9152
	371	68.1173	41.8471	5.6756
	372	67.4785	41.3680	5.2764
	373	66.9994	41.0486	5.0368
	374	66.5203	40.7292	4.7174
	375	65.9614	40.3299	4.3980
	376	65.2427	39.7710	4.0786
	377	64.7636	39.3718	3.7592
	378	64.2845	39.1322	3.4399
	379	63.8055	38.8128	3.2802
	380	63.4062	38.2539	2.8809
	381	63.5659	37.9345	2.7212
	382	63.8055	37.6151	2.5615
	383	64.0450	37.2957	2.4018
	384	64.3644	36.8166	2.0824
	385	64.5241	36.4972	1.9227
	386	64.7636	36.2577	1.7630
	387	65.0032	35.9383	1.6033
	388	65.3226	35.4592	1.4436
	389	65.5621	35.1398	1.2839
	390	66.9195	35.1398	1.0444
	391	68.7561	35.7786	0.8847
	392	72.5888	36.8964	0.5653
	393	75.2238	37.6949	0.3258
	394	77.8588	38.4136	0.1661
	395	80.4140	39.0524	-0.0735
	396	84.2467	40.2501	-0.3929
	397	86.8019	41.0486	-0.5526
	398	89.3570	41.7672	-0.7921
	399	91.9920	42.4859	-0.9518
	400	94.1479	43.2045	-1.1914
	401	95.9845	43.6836	-1.1115
	402	96.8628	44.0030	-1.1115
	403	97.8210	44.1627	-1.0317
	404	98.6195	44.4821	-0.9518
	405	100.0567	44.8015	-0.8720
	406	100.8552	45.1209	-0.7921
	407	101.8134	45.2806	-0.7921
	408	102.6119	45.6000	-0.7123
	409	104.0492	45.9992	-0.6324
	410	104.4484	46.1589	-0.5526
	411	104.7678	45.9193	-0.6324
	412	104.9275	45.7597	-0.6324
	413	105.0872	45.4403	-0.6324
	414	105.0872	45.2007	-0.7123
	415	105.2469	44.9612	-0.7123
	416	105.3268	44.8015	-0.7123
	417	105.4865	44.4821	-0.7123
	418	105.5663	44.2425	-0.7921
	419	105.7260	44.0030	-0.7921
	420	105.4865	43.6836	-0.7921
	421	104.6081	42.8851	-0.8720
	422	103.8096	42.3262	-0.9518
	423	103.0111	41.6874	-0.9518
	424	102.1328	41.0486	-0.9518
	425	100.9351	40.0904	-1.0317
	426	100.1366	39.6113	-1.1115
	427	99.3381	38.9725	-1.1115
	428	98.5396	38.3337	-1.1914
	429	97.2620	37.3755	-1.2712
	430	97.2620	37.1360	-1.2712
	431	98.5396	36.9763	-1.4309
	432	100.1366	36.8964	-1.5906
	433	102.3724	36.8964	-1.7503
	434	103.9693	36.8166	-1.9100
	435	105.4066	36.8166	-2.0697
	436	107.0036	36.7368	-2.0697
	437	109.2393	36.7368	-2.3891
	438	110.8363	36.6569	-2.3891
	439	112.2736	36.6569	-2.5488
	440	113.6310	36.5771	-2.7085
	441	115.3877	36.4972	-2.7085
	442	116.4257	36.4174	-2.7883
	443	117.4638	36.3375	-2.7883
	444	118.5018	36.2577	-2.7883
	445	120.0988	36.1778	-2.8682
	446	121.1368	36.0980	-2.8682
	447	122.1748	36.0181	-2.8682
	448	123.2129	35.9383	-2.9480
	449	124.2509	35.9383	-2.9480
	450	125.3688	35.6987	-2.9480
	451	125.4486	35.3793	-2.9480
	452	125.4486	35.0599	-2.9480
	453	125.4486	34.8204	-2.9480
	454	125.4486	34.4211	-2.9480
	455	125.4486	34.1017	-2.9480
	456	125.3688	33.7823	-2.9480
	457	125.3688	33.4630	-2.9480
	458	125.3688	33.0637	-2.9480
	459	125.3688	32.8242	-2.8682
	460	125.2889	32.4249	-2.8682
	461	124.9695	32.1055	-2.8682
	462	124.4106	31.4667	-2.8682
	463	124.0912	30.9876	-2.7883
	464	123.6121	30.5884	-2.7883
	465	123.2927	30.1892	-2.7883
	466	122.7338	29.5504	-2.7883
	467	122.3345	29.0713	-2.7085
	468	122.0151	28.7519	-2.7085
	469	121.5360	28.2728	-2.7085
	470	121.2166	27.7139	-2.7085
	471	121.1368	27.3945	-2.7085
	472	121.1368	27.0751	-2.7085
	473	121.1368	26.7557	-2.7085
	474	121.1368	26.2766	-2.7085
	475	121.1368	25.9572	-2.7085
	476	121.1368	25.6378	-2.7085
	477	121.1368	25.3184	-2.7085
	478	121.1368	24.8393	-2.7085
	479	121.1368	24.5199	-2.7085
	480	120.8973	24.1207	-2.7085
	481	120.4980	23.8013	-2.5488
	482	119.3801	23.1625	-2.5488
	483	118.7413	22.8431	-2.3891
	484	117.9429	22.5237	-2.3891
	485	117.3041	22.0446	-2.3093
	486	116.1862	21.5655	-2.2294
	487	115.5474	21.1663	-2.0697
	488	114.9086	20.7670	-2.0697
	489	114.1101	20.5275	-1.9100
	490	113.4713	19.8887	-1.9100
	491	113.3116	19.4894	-1.8302
	492	113.3116	19.1700	-1.8302
	493	113.2318	18.8506	-1.8302
	494	113.2318	18.5313	-1.7503
	495	113.1519	17.9723	-1.7503
	496	113.1519	17.5731	-1.6705
	497	113.0721	17.2537	-1.6705
	498	113.0721	16.9343	-1.6705
	499	112.9922	16.3753	-1.5906
	500	112.9124	16.1358	-1.5108
	501	112.7527	15.7365	-1.5906
	502	112.5131	15.5769	-1.5108
	503	112.1937	15.0978	-1.5108
	504	112.0340	14.8582	-1.5108
	505	111.7945	14.6187	-1.5108
	506	111.6348	14.2993	-1.4309
	507	111.3154	13.9799	-1.4309
	508	111.0759	13.6605	-1.4309
	509	110.9162	13.3411	-1.4309
	510	110.5968	13.1015	-1.4309
	511	110.1975	12.4628	-1.3511
	512	109.7184	12.1434	-1.3511
	513	109.3990	11.6643	-1.3511
	514	108.9200	11.3449	-1.3511
	515	108.4409	10.7061	-1.3511
	516	107.9618	10.2270	-1.3511
	517	107.6424	9.9076	-1.3511
	518	107.3230	9.4285	-1.3511
	519	106.6842	8.7897	-1.2712
	520	106.4446	8.5502	-1.2712
	521	106.6043	8.2308	-1.2712
	522	106.8439	7.9912	-1.2712
	523	107.1633	7.6718	-1.1914
	524	107.3230	7.4323	-1.1914
	525	107.5625	7.2726	-1.1914
	526	107.7222	7.0330	-1.1914
	527	108.0416	6.7136	-1.1115
	528	108.2812	6.4741	-1.1115
	529	108.4409	6.2346	-1.1115
	530	108.6006	5.9950	-1.1115
	531	108.2013	5.7555	-1.0317
	532	107.8819	5.5958	-0.9518
	533	107.5625	5.4361	-0.9518
	534	107.2431	5.2764	-0.8720
	535	106.7640	4.9570	-0.7921
	536	106.5245	4.7973	-0.7921
	537	106.2051	4.6376	-0.7123
	538	105.8857	4.4779	-0.7123
	539	105.4066	4.2383	-0.6324
	540	105.2469	4.0786	-0.5526
	541	105.0872	3.8391	-0.5526
	542	105.0074	3.6794	-0.5526
	543	104.9275	3.4399	-0.5526
	544	104.7678	3.1205	-0.4727
	545	104.7678	2.9608	-0.4727
	546	104.6081	2.7212	-0.4727
	547	104.6081	2.5615	-0.4727
	548	104.4484	2.2421	-0.3929
	549	104.3686	2.0026	-0.3929
	550	104.2887	1.9227	-0.3929
	551	103.8096	1.6033	-0.3929
	552	103.3305	1.4436	-0.3929
	553	102.8515	1.2041	-0.3130
	554	102.5321	1.0444	-0.3130
	555	102.0530	0.8847	-0.2332
	556	101.5739	0.6452	-0.2332
	557	101.0948	0.4855	-0.1533
	558	100.7754	0.4056	-0.2332
	559	100.2963	0.3258	-0.2332
	560	99.8971	-0.3929	-0.0735
	561	99.4180	-0.4727	-0.0735
	562	99.0187	-0.5526	-0.0735
	563	98.6993	-0.6324	-0.0735
	564	98.2202	-0.7921	0.0064
	565	97.8210	-0.9518	0.0064
	566	97.4217	-1.1115	0.0064
	567	97.1023	-1.1914	0.0862
	568	96.6233	-1.4309	0.0862
	569	96.2240	-1.5906	0.0862
	570	95.9046	-1.7503	0.0862
	571	95.8248	-1.9100	0.1661
	572	95.6651	-2.0697	0.1661
	573	95.5852	-2.2294	0.2459
	574	95.5054	-2.4689	0.2459
	575	95.4255	-2.6286	0.2459
	576	95.3457	-2.8682	0.3258
	577	95.1860	-3.0279	0.3258
	578	95.1860	-3.1876	0.3258
	579	95.0263	-3.3473	0.4056
	580	94.7069	-3.5868	0.4855
	581	94.3076	-3.5868	0.6452
	582	93.7487	-3.5868	0.8048
	583	93.1898	-3.5868	0.8847
	584	92.3913	-3.5868	1.1242
	585	91.9122	-3.5868	1.2839
	586	91.3532	-3.5868	1.4436
	587	90.7943	-3.5868	1.5235
	588	89.9958	-3.5868	1.7630
	589	89.4369	-3.5868	1.9227
	590	89.1175	-3.6667	2.0824
	591	89.1175	-3.8264	2.0824
	592	89.2772	-3.9861	2.2421
	593	89.4369	-4.3055	2.4018
	594	89.5966	-4.5450	2.4018
	595	89.7563	-4.7047	2.5615
	596	89.7563	-4.9443	2.7212
	597	89.9958	-5.2637	2.8011
	598	90.0757	-5.4233	2.8809
	599	90.2354	-5.6629	3.0406
	600	90.3152	-5.9024	3.1205
	601	90.3951	-6.0621	3.2003
	602	90.3152	-6.2218	3.3600
	603	90.3152	-6.3017	3.3600
	604	90.3152	-6.3815	3.4399
	605	90.3152	-6.5412	3.5197
	606	90.2354	-6.7009	3.6794
	607	90.2354	-6.8606	3.6794
	608	90.2354	-7.0203	3.8391
	609	90.1555	-7.1800	3.9988
	610	90.0757	-7.3397	3.9988
	611	89.9958	-7.4994	4.0786
	612	89.8361	-7.4994	4.1585
	613	89.5966	-7.8188	4.1585
	614	89.4369	-7.8188	4.2383
	615	89.2772	-7.9785	4.3182
	616	89.0376	-8.1382	4.3182
	617	88.7981	-8.2979	4.4779
	618	88.6384	-8.4576	4.4779
	619	88.4787	-8.6173	4.5577
	620	88.2391	-8.6173	4.6376
	621	87.6802	-8.7770	4.6376
	622	87.3608	-8.9367	4.7174
	623	86.8817	-8.9367	4.7174
	624	86.5623	-9.0964	4.7973
	625	85.9235	-9.1762	4.7973
	626	85.6041	-9.2561	4.8771
	627	85.1250	-9.3359	4.8771
	628	84.8057	-9.4158	4.9570
	629	84.1669	-9.5755	4.9570
	630	83.9273	-9.5755	5.0368
	631	84.0072	-9.7352	5.1167
	632	84.0870	-9.8949	5.2764
	633	84.2467	-10.0546	5.5958
	634	84.3266	-10.2143	5.6756
	635	84.4863	-10.3740	5.7555
	636	84.4863	-10.3740	5.9152
	637	84.6460	-10.5337	6.2346
	638	84.8057	-10.6934	6.3144
	639	84.8855	-10.8531	6.3943
	640	84.9653	-11.0128	6.5540
	641	84.7258	-10.9329	6.6338
	642	84.2467	-10.9329	6.7136
	643	84.0072	-10.9329	6.7935
	644	83.7676	-10.9329	6.8733
	645	83.4482	-10.8531	6.8733
	646	82.9691	-10.8531	6.9532
	647	82.7296	-10.8531	7.0330
	648	82.4900	-10.8531	7.0330
	649	82.1706	-10.7732	7.1129
	650	81.8513	-10.8531	7.1927
	651	81.8513	-10.9329	7.3524
	652	81.9311	-11.0128	7.5121
	653	81.9311	-11.1725	7.5121
	654	82.0908	-11.3322	7.7517
	655	82.0908	-11.4918	7.8315
	656	82.2505	-11.4918	7.9912
	657	82.2505	-11.6515	8.1509
	658	82.4102	-11.8112	8.3106
	659	82.4102	-11.9709	8.3905
	660	82.5699	-12.1306	8.4703
	661	82.6497	-12.2903	8.6300
	662	82.9691	-12.5299	8.7897
	663	83.2087	-12.6896	8.9494
	664	83.3684	-12.9291	8.9494
	665	83.6079	-13.0888	9.1091
	666	83.9273	-13.3284	9.2688
	667	84.0870	-13.4881	9.3487
	668	84.3266	-13.7276	9.4285
	669	84.4863	-13.8873	9.5882
	670	84.7258	-14.0470	9.7479
	671	84.4064	-14.0470	9.7479
	672	84.0870	-14.0470	9.7479
	673	83.7676	-13.9672	9.8277
	674	83.2885	-13.8873	9.9076
	675	82.9691	-13.8873	9.9076
	676	82.6497	-13.8873	9.9076
	677	82.3303	-13.8075	9.9874
	678	81.8513	-13.7276	10.0673
	679	81.5319	-13.7276	10.0673
	680	80.9729	-13.6478	10.0673
	681	80.3341	-13.5679	9.9076
	682	79.0565	-13.3284	9.6681
	683	78.2581	-13.2485	9.5084
	684	77.3797	-13.0888	9.3487
	685	76.5812	-12.9291	9.1890
	686	75.7029	-12.7694	8.9494
	687	74.5052	-12.6097	8.7897
	688	73.6268	-12.4500	8.6300
	689	72.8284	-12.2903	8.3905
	690	72.1097	-12.1306	8.3106
	691	72.1097	-12.2903	8.3106
	692	72.2694	-12.2903	8.4703
	693	72.5090	-12.4500	8.6300
	694	72.7485	-12.6097	8.6300
	695	73.0679	-12.7694	8.8696
	696	73.2276	-12.9291	8.9494
	697	73.4671	-12.9291	9.1091
	698	73.6268	-13.0888	9.2688
	699	73.9462	-13.2485	9.4285
	700	74.1059	-13.4082	9.5084
	701	74.4253	-13.3284	9.4285
	702	74.5850	-13.3284	9.2688
	703	74.9044	-13.2485	9.1091
	704	75.0641	-13.2485	9.1091
	705	75.2238	-13.1687	8.9494
	706	75.3835	-13.1687	8.8696
	707	75.7029	-13.0888	8.7099
	708	75.8626	-13.0888	8.6300
	709	76.0223	-13.0090	8.4703
	710	76.0223	-12.9291	8.4703
	711	74.7447	-12.6896	8.2308
	712	73.6268	-12.5299	8.1509
	713	72.3493	-12.2903	7.9912
	714	71.2314	-12.1306	7.8315
	715	69.4747	-11.8112	7.6718
	716	68.3568	-11.5717	7.5121
	717	67.1591	-11.4120	7.3524
	718	65.9614	-11.1725	7.1927
	719	64.2047	-10.8531	7.0330
	720	63.3264	-10.6934	6.8733
	721	64.0450	-10.7732	6.9532
	722	64.7636	-10.8531	7.0330
	723	65.8815	-11.0128	7.1129
	724	66.6002	-11.0926	7.1927
	725	67.3986	-11.1725	7.1927
	726	68.1173	-11.3322	7.2726
	727	69.2352	-11.4120	7.3524
	728	70.0336	-11.4918	7.3524
	729	70.7523	-11.5717	7.4323
	730	71.3911	-11.6515	7.5121
	731	72.2694	-11.7314	7.5121
	732	72.7485	-11.8112	7.5920
	733	73.2276	-11.8911	7.5920
	734	73.7067	-11.9709	7.6718
	735	74.1858	-11.9709	7.6718
	736	74.8246	-12.0508	7.7517
	737	75.3037	-12.1306	7.7517
	738	75.7828	-12.1306	7.8315
	739	76.2618	-12.2105	7.8315
	740	76.5812	-12.2903	7.8315
	741	75.7029	-12.1306	7.8315
	742	74.6649	-11.8911	7.6718
	743	73.5470	-11.7314	7.5121
	744	72.0299	-11.4918	7.3524
	745	70.9918	-11.3322	7.1927
	746	69.8739	-11.0926	7.1927
	747	68.9158	-10.9329	7.0330
	748	67.3188	-10.6934	6.8733
	749	66.2009	-10.5337	6.7136
	750	65.1629	-10.3740	6.6338
	751	63.7256	-10.1344	6.5540
	752	61.4100	-9.8150	6.2346
	753	59.7332	-9.5755	6.1547
	754	58.2959	-9.3359	6.0749
	755	56.6989	-9.0964	5.9152
	756	54.3035	-8.7770	5.7555
	757	52.7863	-8.6173	5.5958
	758	51.2692	-8.3777	5.4361
	759	49.6722	-8.2181	5.2764
	760	48.5544	-7.8987	5.1167
	761	49.7521	-8.2181	5.3562
	762	51.6685	-8.5374	5.5159
	763	53.5050	-8.8568	5.7555
	764	56.2997	-9.3359	5.9950
	765	58.0563	-9.6553	6.2346
	766	59.9727	-9.8949	6.3943
	767	61.8891	-10.2143	6.6338
	768	64.6838	-10.6135	6.8733
	769	66.5203	-10.9329	7.1129
	770	67.7979	-11.2523	7.1927
	771	68.1971	-11.1725	7.2726
	772	67.7180	-11.0926	7.1927
	773	67.3986	-11.0128	7.1129
	774	67.0792	-11.0128	7.0330
	775	66.7599	-10.8531	7.0330
	776	66.2808	-10.7732	6.9532
	777	65.9614	-10.6934	6.8733
	778	65.6420	-10.6934	6.8733
	779	65.3226	-10.5337	6.7935
	780	64.9233	-10.5337	6.7136
	781	65.0032	-10.5337	6.7136
	782	65.0830	-10.5337	6.7136
	783	65.1629	-10.5337	6.7935
	784	65.3226	-10.5337	6.7935
	785	65.4024	-10.6135	6.7935
	786	65.4823	-10.6135	6.7935
	787	65.5621	-10.6135	6.8733
	788	65.6420	-10.6135	6.8733
	789	65.8017	-10.6934	6.8733
	790	65.7218	-10.6934	6.8733
	791	65.4024	-10.6135	6.8733
	792	65.0032	-10.5337	6.7935
	793	64.3644	-10.3740	6.7136
	794	63.8853	-10.3740	6.7136
	795	63.4861	-10.2143	6.6338
	796	63.0070	-10.2143	6.5540
	797	62.3682	-10.0546	6.4741
	798	61.8891	-9.9747	6.3943
	799	61.4100	-9.8949	6.3943
	800	61.0107	-9.8150	6.3144
	801	59.9727	-9.5755	6.2346
	802	59.2541	-9.5755	6.0749
	803	58.6951	-9.4158	6.0749
	804	57.8966	-9.2561	5.9152
	805	56.9385	-9.0964	5.8353
	806	56.2997	-8.9367	5.7555
	807	55.5810	-8.7770	5.6756
	808	54.8624	-8.6971	5.5958
	809	53.9042	-8.4576	5.4361
	810	53.2654	-8.4576	5.4361
	811	53.7445	-8.4576	5.4361
	812	54.2236	-8.6173	5.5159
	813	55.0221	-8.6971	5.5958
	814	55.5012	-8.7770	5.5958
	815	55.9803	-8.9367	5.7555
	816	56.4594	-8.9367	5.7555
	817	57.2579	-9.0964	5.8353
	818	57.7370	-9.1762	5.9152
	819	58.2160	-9.2561	5.9152
	820	58.6153	-9.4158	5.9950
	821	59.1742	-9.4158	6.0749
	822	59.3339	-9.4956	6.0749
	823	59.6533	-9.5755	6.1547
	824	59.9727	-9.5755	6.1547
	825	60.3720	-9.6553	6.2346
	826	60.6115	-9.7352	6.2346
	827	60.9309	-9.7352	6.3144
	828	61.0906	-9.7352	6.3144
	829	61.5697	-9.8150	6.3943
	830	61.7773	-9.8310	6.4182
End
